Typical Measured Spectrum of Semrock Di01-R532 Optical Filter	
For wavelengths between 320 and 1120 nm, values near or below 1e-6 (Optical Density 6) are measurement noise limited.
For wavelengths < 320 nm and > 1120 nm, values near or below 3e-6 (Optical Density 5.5) are measurement noise limited. 
Data format:  Wavelength (nm) <tab> Transmission (0 to 1)
300.0	0.08323
300.2	0.08454
300.4	0.08586
300.6	0.08717
300.8	0.0899
301.0	0.09555
301.2	0.10107
301.4	0.10513
301.6	0.10914
301.8	0.11129
302.0	0.11348
302.2	0.11829
302.4	0.12337
302.6	0.12705
302.8	0.1306
303.0	0.12949
303.2	0.12682
303.4	0.12675
303.6	0.12822
303.8	0.13075
304.0	0.13437
304.2	0.13446
304.4	0.12908
304.6	0.12377
304.8	0.11832
305.0	0.11122
305.2	0.11201
305.4	0.11835
305.6	0.12447
305.8	0.12623
306.0	0.12422
306.2	0.11846
306.4	0.11369
306.6	0.11367
306.8	0.11663
307.0	0.12074
307.2	0.12253
307.4	0.12239
307.6	0.11731
307.8	0.11067
308.0	0.10557
308.2	0.10478
308.4	0.10661
308.6	0.10938
308.8	0.11019
309.0	0.10915
309.2	0.10483
309.4	0.10002
309.6	0.09563
309.8	0.09316
310.0	0.09304
310.2	0.09456
310.4	0.09519
310.6	0.09466
310.8	0.09178
311.0	0.08888
311.2	0.08466
311.4	0.08106
311.6	0.07936
311.8	0.07864
312.0	0.08024
312.2	0.08248
312.4	0.08514
312.6	0.08669
312.8	0.0874
313.0	0.08592
313.2	0.08439
313.4	0.08132
313.6	0.07833
313.8	0.07692
314.0	0.07636
314.2	0.0758
314.4	0.07428
314.6	0.07333
314.8	0.07091
315.0	0.06889
315.2	0.06743
315.4	0.06648
315.6	0.06711
315.8	0.0678
316.0	0.06865
316.2	0.06885
316.4	0.06828
316.6	0.06635
316.8	0.06549
317.0	0.06491
317.2	0.06596
317.4	0.06788
317.6	0.07016
317.8	0.07153
318.0	0.07215
318.2	0.07134
318.4	0.06982
318.6	0.06847
318.8	0.06827
319.0	0.06864
319.2	0.06888
319.4	0.06907
319.6	0.06685
319.8	0.06292
320.0	0.0579
320.2	0.05376
320.4	0.05176
320.6	0.05221
320.8	0.05373
321.0	0.05447
321.2	0.05297
321.4	0.0492
321.6	0.04402
321.8	0.03876
322.0	0.03581
322.2	0.03633
322.4	0.03935
322.6	0.04059
322.8	0.04059
323.0	0.03869
323.2	0.03495
323.4	0.03008
323.6	0.02695
323.8	0.02608
324.0	0.02608
324.2	0.02562
324.4	0.02427
324.6	0.02218
324.8	0.01911
325.0	0.01621
325.2	0.01454
325.4	0.01392
325.6	0.01377
325.8	0.01384
326.0	0.01379
326.2	0.0135
326.4	0.01318
326.6	0.0133
326.8	0.01315
327.0	0.01315
327.2	0.01353
327.4	0.0135
327.6	0.01355
327.8	0.01343
328.0	0.01339
328.2	0.01337
328.4	0.01339
328.6	0.01345
328.8	0.01328
329.0	0.01328
329.2	0.01344
329.4	0.01357
329.6	0.01359
329.8	0.01355
330.0	0.01366
330.2	0.01369
330.4	0.01378
330.6	0.01397
330.8	0.01401
331.0	0.01403
331.2	0.01406
331.4	0.01409
331.6	0.01425
331.8	0.01425
332.0	0.01432
332.2	0.01434
332.4	0.01442
332.6	0.01443
332.8	0.0144
333.0	0.01454
333.2	0.0148
333.4	0.01493
333.6	0.01507
333.8	0.01526
334.0	0.01538
334.2	0.01551
334.4	0.01563
334.6	0.01573
334.8	0.01598
335.0	0.01581
335.2	0.01581
335.4	0.01587
335.6	0.01582
335.8	0.01591
336.0	0.01605
336.2	0.01684
336.4	0.01856
336.6	0.02248
336.8	0.02965
337.0	0.04128
337.2	0.05573
337.4	0.07132
337.6	0.08595
337.8	0.09907
338.0	0.11037
338.2	0.11965
338.4	0.12712
338.6	0.13289
338.8	0.13761
339.0	0.14091
339.2	0.1442
339.4	0.14697
339.6	0.14832
339.8	0.14888
340.0	0.15051
340.2	0.1554
340.4	0.16566
340.6	0.17758
340.8	0.18827
341.0	0.1959
341.2	0.20046
341.4	0.20058
341.6	0.19797
341.8	0.19484
342.0	0.1939
342.2	0.19702
342.4	0.20669
342.6	0.21881
342.8	0.23147
343.0	0.24122
343.2	0.24768
343.4	0.2488
343.6	0.24824
343.8	0.24674
344.0	0.24799
344.2	0.25186
344.4	0.25934
344.6	0.27033
344.8	0.28271
345.0	0.29551
345.2	0.30566
345.4	0.31368
345.6	0.32146
345.8	0.33019
346.0	0.33989
346.2	0.34981
346.4	0.35997
346.6	0.37091
346.8	0.38184
347.0	0.39241
347.2	0.39942
347.4	0.40502
347.6	0.41092
347.8	0.41806
348.0	0.42525
348.2	0.43279
348.4	0.43827
348.6	0.44155
348.8	0.44499
349.0	0.44908
349.2	0.45191
349.4	0.45533
349.6	0.46197
349.8	0.4721
350.0	0.48472
350.2	0.49673
350.4	0.50537
350.6	0.50929
350.8	0.5079
351.0	0.50337
351.2	0.49662
351.4	0.49025
351.6	0.48591
351.8	0.48703
352.0	0.49427
352.2	0.50821
352.4	0.52752
352.6	0.54412
352.8	0.55481
353.0	0.55813
353.2	0.5542
353.4	0.54297
353.6	0.52965
353.8	0.51321
354.0	0.50009
354.2	0.49223
354.4	0.4934
354.6	0.50131
354.8	0.51711
355.0	0.53497
355.2	0.55129
355.4	0.56296
355.6	0.56615
355.8	0.56536
356.0	0.55689
356.2	0.5458
356.4	0.53388
356.6	0.52634
356.8	0.52356
357.0	0.52862
357.2	0.53951
357.4	0.55349
357.6	0.56575
357.8	0.57206
358.0	0.57241
358.2	0.56537
358.4	0.55037
358.6	0.53358
358.8	0.51501
359.0	0.49844
359.2	0.48728
359.4	0.48603
359.6	0.49206
359.8	0.50289
360.0	0.51543
360.2	0.52904
360.4	0.53651
360.6	0.53903
360.8	0.53501
361.0	0.52561
361.2	0.51183
361.4	0.49541
361.6	0.48173
361.8	0.4726
362.0	0.46928
362.2	0.47253
362.4	0.4812
362.6	0.49213
362.8	0.50353
363.0	0.51077
363.2	0.51389
363.4	0.51163
363.6	0.50447
363.8	0.49328
364.0	0.47987
364.2	0.46811
364.4	0.45803
364.6	0.45308
364.8	0.45334
365.0	0.46202
365.2	0.47458
365.4	0.48491
365.6	0.49234
365.8	0.49777
366.0	0.49932
366.2	0.49588
366.4	0.48994
366.6	0.47982
366.8	0.47035
367.0	0.46266
367.2	0.458
367.4	0.45925
367.6	0.46191
367.8	0.46915
368.0	0.47755
368.2	0.48498
368.4	0.49079
368.6	0.49372
368.8	0.49241
369.0	0.48904
369.2	0.48121
369.4	0.47288
369.6	0.4651
369.8	0.45864
370.0	0.45636
370.2	0.45865
370.4	0.46402
370.6	0.47146
370.8	0.4808
371.0	0.4898
371.2	0.49947
371.4	0.50442
371.6	0.50722
371.8	0.50537
372.0	0.50089
372.2	0.49229
372.4	0.48513
372.6	0.47982
372.8	0.47578
373.0	0.47662
373.2	0.48152
373.4	0.4919
373.6	0.50288
373.8	0.5164
374.0	0.52695
374.2	0.53591
374.4	0.54165
374.6	0.54279
374.8	0.53998
375.0	0.53293
375.2	0.52652
375.4	0.51823
375.6	0.513
375.8	0.51098
376.0	0.51353
376.2	0.52087
376.4	0.53268
376.6	0.54673
376.8	0.55966
377.0	0.5728
377.2	0.58142
377.4	0.58505
377.6	0.58455
377.8	0.57931
378.0	0.5717
378.2	0.5616
378.4	0.55337
378.6	0.54607
378.8	0.54367
379.0	0.54736
379.2	0.55495
379.4	0.56853
379.6	0.58521
379.8	0.60291
380.0	0.61851
380.2	0.63104
380.4	0.63678
380.6	0.63398
380.8	0.62977
381.0	0.61753
381.2	0.60355
381.4	0.58735
381.6	0.57564
381.8	0.56678
382.0	0.564
382.2	0.56751
382.4	0.58167
382.6	0.60007
382.8	0.6236
383.0	0.64777
383.2	0.67205
383.4	0.68745
383.6	0.69561
383.8	0.69546
384.0	0.68588
384.2	0.66995
384.4	0.64879
384.6	0.62562
384.8	0.60274
385.0	0.58407
385.2	0.57459
385.4	0.57434
385.6	0.58095
385.8	0.59986
386.0	0.62407
386.2	0.65567
386.4	0.68655
386.6	0.71286
386.8	0.73089
387.0	0.73775
387.2	0.73667
387.4	0.72396
387.6	0.70195
387.8	0.67255
388.0	0.6412
388.2	0.61129
388.4	0.58638
388.6	0.57081
388.8	0.56574
389.0	0.57106
389.2	0.58621
389.4	0.61294
389.6	0.64699
389.8	0.6806
390.0	0.70908
390.2	0.73267
390.4	0.74591
390.6	0.74408
390.8	0.73276
391.0	0.70936
391.2	0.6769
391.4	0.6384
391.6	0.59885
391.8	0.5639
392.0	0.534
392.2	0.51521
392.4	0.50415
392.6	0.50546
392.8	0.51755
393.0	0.53834
393.2	0.5661
393.4	0.59541
393.6	0.62329
393.8	0.64536
394.0	0.65783
394.2	0.66043
394.4	0.65227
394.6	0.63385
394.8	0.6059
395.0	0.57021
395.2	0.52982
395.4	0.48788
395.6	0.44776
395.8	0.41241
396.0	0.3821
396.2	0.35667
396.4	0.33654
396.6	0.32138
396.8	0.30846
397.0	0.2983
397.2	0.29043
397.4	0.28701
397.6	0.28597
397.8	0.28509
398.0	0.28566
398.2	0.28606
398.4	0.28826
398.6	0.29075
398.8	0.29256
399.0	0.29605
399.2	0.30026
399.4	0.30429
399.6	0.3072
399.8	0.31107
400.0	0.31474
400.2	0.31884
400.4	0.31971
400.6	0.32264
400.8	0.32483
401.0	0.32551
401.2	0.32548
401.4	0.32618
401.6	0.32665
401.8	0.32845
402.0	0.33155
402.2	0.33569
402.4	0.34217
402.6	0.35117
402.8	0.36305
403.0	0.37797
403.2	0.39615
403.4	0.4169
403.6	0.4386
403.8	0.46231
404.0	0.48276
404.2	0.50062
404.4	0.5111
404.6	0.51999
404.8	0.5213
405.0	0.51577
405.2	0.50659
405.4	0.49292
405.6	0.4786
405.8	0.46425
406.0	0.45153
406.2	0.44304
406.4	0.43682
406.6	0.43515
406.8	0.438
407.0	0.44313
407.2	0.45194
407.4	0.46104
407.6	0.47028
407.8	0.47958
408.0	0.4845
408.2	0.48679
408.4	0.48421
408.6	0.47867
408.8	0.46984
409.0	0.45715
409.2	0.44357
409.4	0.43022
409.6	0.4173
409.8	0.40716
410.0	0.39939
410.2	0.39394
410.4	0.39208
410.6	0.39405
410.8	0.39832
411.0	0.40501
411.2	0.41319
411.4	0.42177
411.6	0.42924
411.8	0.43481
412.0	0.43833
412.2	0.43885
412.4	0.43594
412.6	0.43114
412.8	0.42222
413.0	0.41239
413.2	0.40183
413.4	0.3914
413.6	0.38245
413.8	0.37498
414.0	0.37114
414.2	0.3696
414.4	0.37016
414.6	0.37407
414.8	0.37947
415.0	0.38582
415.2	0.39344
415.4	0.40159
415.6	0.40822
415.8	0.41155
416.0	0.41498
416.2	0.41498
416.4	0.40988
416.6	0.40373
416.8	0.39627
417.0	0.38691
417.2	0.37704
417.4	0.36856
417.6	0.36099
417.8	0.35441
418.0	0.35125
418.2	0.34983
418.4	0.35157
418.6	0.35557
418.8	0.36186
419.0	0.36907
419.2	0.37719
419.4	0.38452
419.6	0.39114
419.8	0.3959
420.0	0.39834
420.2	0.39791
420.4	0.39472
420.6	0.38864
420.8	0.38119
421.0	0.37257
421.2	0.36232
421.4	0.35291
421.6	0.34454
421.8	0.33781
422.0	0.33198
422.2	0.32951
422.4	0.32965
422.6	0.3319
422.8	0.33635
423.0	0.34315
423.2	0.35123
423.4	0.35904
423.6	0.36876
423.8	0.37619
424.0	0.38249
424.2	0.38673
424.4	0.38779
424.6	0.3874
424.8	0.38403
425.0	0.37917
425.2	0.37156
425.4	0.36459
425.6	0.3558
425.8	0.34946
426.0	0.34438
426.2	0.34001
426.4	0.33787
426.6	0.33841
426.8	0.34097
427.0	0.34571
427.2	0.35206
427.4	0.36024
427.6	0.36827
427.8	0.37685
428.0	0.38459
428.2	0.38958
428.4	0.39385
428.6	0.39572
428.8	0.39401
429.0	0.39147
429.2	0.38623
429.4	0.3798
429.6	0.37121
429.8	0.36347
430.0	0.35703
430.2	0.35171
430.4	0.3467
430.6	0.34409
430.8	0.34348
431.0	0.34588
431.2	0.35014
431.4	0.35681
431.6	0.36419
431.8	0.37363
432.0	0.38328
432.2	0.39241
432.4	0.39989
432.6	0.40654
432.8	0.41016
433.0	0.41091
433.2	0.40997
433.4	0.40729
433.6	0.40209
433.8	0.39505
434.0	0.38728
434.2	0.37937
434.4	0.37259
434.6	0.36688
434.8	0.36131
435.0	0.35972
435.2	0.36098
435.4	0.3631
435.6	0.3688
435.8	0.37509
436.0	0.38413
436.2	0.39312
436.4	0.40315
436.6	0.41155
436.8	0.41981
437.0	0.42542
437.2	0.42974
437.4	0.43169
437.6	0.42944
437.8	0.42743
438.0	0.42336
438.2	0.41759
438.4	0.41137
438.6	0.40482
438.8	0.39992
439.0	0.3946
439.2	0.39045
439.4	0.39008
439.6	0.3913
439.8	0.39307
440.0	0.39867
440.2	0.40497
440.4	0.41345
440.6	0.42351
440.8	0.43223
441.0	0.44067
441.2	0.44902
441.4	0.45407
441.6	0.45815
441.8	0.45913
442.0	0.45774
442.2	0.4553
442.4	0.4492
442.6	0.44342
442.8	0.43633
443.0	0.43002
443.2	0.42272
443.4	0.4163
443.6	0.41238
443.8	0.4094
444.0	0.40931
444.2	0.41087
444.4	0.41475
444.6	0.42179
444.8	0.43108
445.0	0.44049
445.2	0.45167
445.4	0.46183
445.6	0.47068
445.8	0.47917
446.0	0.48502
446.2	0.48857
446.4	0.48944
446.6	0.48831
446.8	0.48462
447.0	0.47821
447.2	0.47049
447.4	0.46262
447.6	0.4545
447.8	0.4474
448.0	0.43888
448.2	0.43298
448.4	0.42962
448.6	0.42946
448.8	0.43066
449.0	0.43563
449.2	0.44383
449.4	0.45243
449.6	0.46385
449.8	0.47523
450.0	0.48607
450.2	0.49605
450.4	0.50469
450.6	0.5139
450.8	0.51751
451.0	0.52019
451.2	0.51897
451.4	0.51602
451.6	0.51064
451.8	0.50271
452.0	0.49549
452.2	0.48454
452.4	0.47665
452.6	0.468
452.8	0.46147
453.0	0.45704
453.2	0.45474
453.4	0.45464
453.6	0.45759
453.8	0.4639
454.0	0.47331
454.2	0.48466
454.4	0.49774
454.6	0.51284
454.8	0.5264
455.0	0.53819
455.2	0.5486
455.4	0.55691
455.6	0.56284
455.8	0.5639
456.0	0.56146
456.2	0.55542
456.4	0.54862
456.6	0.53703
456.8	0.52543
457.0	0.51499
457.2	0.50367
457.4	0.493
457.6	0.48471
457.8	0.47641
458.0	0.47209
458.2	0.47024
458.4	0.47252
458.6	0.47852
458.8	0.49012
459.0	0.50296
459.2	0.51895
459.4	0.53398
459.6	0.54973
459.8	0.56519
460.0	0.57935
460.2	0.59098
460.4	0.59927
460.6	0.60471
460.8	0.60506
461.0	0.60222
461.2	0.59644
461.4	0.58671
461.6	0.57563
461.8	0.56391
462.0	0.55155
462.2	0.53872
462.4	0.5253
462.6	0.51342
462.8	0.50485
463.0	0.49848
463.2	0.49523
463.4	0.49578
463.6	0.49983
463.8	0.51002
464.0	0.52217
464.2	0.53491
464.4	0.55082
464.6	0.5652
464.8	0.57909
465.0	0.59072
465.2	0.6006
465.4	0.6075
465.6	0.61266
465.8	0.61136
466.0	0.60769
466.2	0.60063
466.4	0.59279
466.6	0.58197
466.8	0.57161
467.0	0.55959
467.2	0.54843
467.4	0.53781
467.6	0.52836
467.8	0.51949
468.0	0.51503
468.2	0.51183
468.4	0.51371
468.6	0.51872
468.8	0.52715
469.0	0.54004
469.2	0.55325
469.4	0.56736
469.6	0.58009
469.8	0.59346
470.0	0.6026
470.2	0.60902
470.4	0.61324
470.6	0.61311
470.8	0.61002
471.0	0.60559
471.2	0.59887
471.4	0.59176
471.6	0.58365
471.8	0.57498
472.0	0.56931
472.2	0.56377
472.4	0.55866
472.6	0.55541
472.8	0.55295
473.0	0.55468
473.2	0.55657
473.4	0.56379
473.6	0.57211
473.8	0.58228
474.0	0.59107
474.2	0.59955
474.4	0.60658
474.6	0.61123
474.8	0.61345
475.0	0.61494
475.2	0.61239
475.4	0.60789
475.6	0.60195
475.8	0.59616
476.0	0.5878
476.2	0.58118
476.4	0.57398
476.6	0.57002
476.8	0.56864
477.0	0.56899
477.2	0.57229
477.4	0.57889
477.6	0.587
477.8	0.59786
478.0	0.60816
478.2	0.6195
478.4	0.62665
478.6	0.63031
478.8	0.62913
479.0	0.62572
479.2	0.61936
479.4	0.60864
479.6	0.59464
479.8	0.57859
480.0	0.56096
480.2	0.54268
480.4	0.52366
480.6	0.50583
480.8	0.49183
481.0	0.48188
481.2	0.47478
481.4	0.4716
481.6	0.47424
481.8	0.48108
482.0	0.49123
482.2	0.50169
482.4	0.51618
482.6	0.52918
482.8	0.54259
483.0	0.55472
483.2	0.55839
483.4	0.55957
483.6	0.55197
483.8	0.54223
484.0	0.52709
484.2	0.50678
484.4	0.48477
484.6	0.4634
484.8	0.43713
485.0	0.41228
485.2	0.3868
485.4	0.36273
485.6	0.34279
485.8	0.32862
486.0	0.32189
486.2	0.32254
486.4	0.33066
486.6	0.34659
486.8	0.36897
487.0	0.39426
487.2	0.42311
487.4	0.4507
487.6	0.47332
487.8	0.49001
488.0	0.49795
488.2	0.49774
488.4	0.49082
488.6	0.47549
488.8	0.45621
489.0	0.4292
489.2	0.40028
489.4	0.36672
489.6	0.33156
489.8	0.2971
490.0	0.26427
490.2	0.23535
490.4	0.21258
490.6	0.19772
490.8	0.19187
491.0	0.19604
491.2	0.20944
491.4	0.22933
491.6	0.25271
491.8	0.2784
492.0	0.30433
492.2	0.32887
492.4	0.35037
492.6	0.36724
492.8	0.37832
493.0	0.38202
493.2	0.37894
493.4	0.36863
493.6	0.35142
493.8	0.3258
494.0	0.29626
494.2	0.26375
494.4	0.23039
494.6	0.1996
494.8	0.17338
495.0	0.15138
495.2	0.13412
495.4	0.12203
495.6	0.11428
495.8	0.11035
496.0	0.11053
496.2	0.11525
496.4	0.12478
496.6	0.13924
496.8	0.15703
497.0	0.17632
497.2	0.19376
497.4	0.20697
497.6	0.216
497.8	0.22047
498.0	0.21912
498.2	0.21579
498.4	0.20679
498.6	0.19356
498.8	0.17611
499.0	0.15511
499.2	0.13184
499.4	0.10733
499.6	0.08421
499.8	0.06518
500.0	0.04925
500.2	0.03916
500.4	0.03464
500.6	0.03501
500.8	0.04078
501.0	0.05069
501.2	0.06225
501.4	0.07186
501.6	0.07784
501.8	0.08213
502.0	0.08424
502.2	0.08441
502.4	0.08246
502.6	0.07884
502.8	0.07336
503.0	0.06475
503.2	0.05408
503.4	0.04199
503.6	0.02978
503.8	0.01849
504.0	0.01008
504.2	0.00488
504.4	0.00224
504.6	0.00114
504.8	6.855e-04
505.0	4.4918e-04
505.2	3.1378e-04
505.4	2.3028e-04
505.6	1.6974e-04
505.8	1.3576e-04
506.0	1.0586e-04
506.2	8.2551e-05
506.4	6.6243e-05
506.6	5.3813e-05
506.8	4.3864e-05
507.0	3.6315e-05
507.2	3.0201e-05
507.4	2.5768e-05
507.6	2.1986e-05
507.8	1.8986e-05
508.0	1.6512e-05
508.2	1.4332e-05
508.4	1.2241e-05
508.6	1.0471e-05
508.8	9.3279e-06
509.0	8.3095e-06
509.2	7.5009e-06
509.4	6.8558e-06
509.6	6.2662e-06
509.8	5.5467e-06
510.0	4.9108e-06
510.2	4.3897e-06
510.4	4.0154e-06
510.6	3.937e-06
510.8	3.5166e-06
511.0	3.2464e-06
511.2	3.1456e-06
511.4	2.991e-06
511.6	2.5398e-06
511.8	2.108e-06
512.0	2.4467e-06
512.2	2.4178e-06
512.4	2.2047e-06
512.6	1.9825e-06
512.8	1.8836e-06
513.0	1.8527e-06
513.2	1.9106e-06
513.4	1.6432e-06
513.6	1.4653e-06
513.8	1.4372e-06
514.0	1.4874e-06
514.2	1.2821e-06
514.4	1.2262e-06
514.6	1.4975e-06
514.8	1.3637e-06
515.0	1.2741e-06
515.2	1.1839e-06
515.4	1.0714e-06
515.6	1.2071e-06
515.8	1.0525e-06
516.0	1.2267e-06
516.2	1.287e-06
516.4	1.2837e-06
516.6	1.2923e-06
516.8	1.2951e-06
517.0	1.2892e-06
517.2	1.3427e-06
517.4	1.2027e-06
517.6	1.155e-06
517.8	1.3378e-06
518.0	1.5463e-06
518.2	1.3377e-06
518.4	1.2572e-06
518.6	1.3442e-06
518.8	1.2293e-06
519.0	1.236e-06
519.2	1.3409e-06
519.4	1.3729e-06
519.6	1.3941e-06
519.8	1.4157e-06
520.0	1.4034e-06
520.2	1.4819e-06
520.4	1.4781e-06
520.6	1.5837e-06
520.8	1.8648e-06
521.0	1.9671e-06
521.2	1.8643e-06
521.4	1.8868e-06
521.6	1.9395e-06
521.8	2.0601e-06
522.0	2.3131e-06
522.2	2.6795e-06
522.4	2.6302e-06
522.6	2.6804e-06
522.8	2.7389e-06
523.0	3.0206e-06
523.2	3.4189e-06
523.4	3.6622e-06
523.6	3.5164e-06
523.8	3.8406e-06
524.0	4.2505e-06
524.2	4.613e-06
524.4	5.0721e-06
524.6	5.3423e-06
524.8	5.6151e-06
525.0	6.4184e-06
525.2	6.9902e-06
525.4	7.7992e-06
525.6	8.7818e-06
525.8	9.636e-06
526.0	1.0444e-05
526.2	1.1708e-05
526.4	1.2465e-05
526.6	1.4351e-05
526.8	1.6171e-05
527.0	1.7919e-05
527.2	2.0258e-05
527.4	2.3091e-05
527.6	2.6311e-05
527.8	2.9575e-05
528.0	3.3661e-05
528.2	3.8604e-05
528.4	4.4636e-05
528.6	5.1418e-05
528.8	5.9487e-05
529.0	6.967e-05
529.2	8.1821e-05
529.4	9.6067e-05
529.6	1.1393e-04
529.8	1.351e-04
530.0	1.608e-04
530.2	1.9249e-04
530.4	2.3114e-04
530.6	2.813e-04
530.8	3.4292e-04
531.0	4.2354e-04
531.2	5.1488e-04
531.4	6.4337e-04
531.6	8.051e-04
531.8	0.00101
532.0	0.00131
532.2	0.00169
532.4	0.00222
532.6	0.00329
532.8	0.0044
533.0	0.00596
533.2	0.00817
533.4	0.0113
533.6	0.01564
533.8	0.02191
534.0	0.02643
534.2	0.03631
534.4	0.04879
534.6	0.06449
534.8	0.08312
535.0	0.10387
535.2	0.12631
535.4	0.15121
535.6	0.17675
535.8	0.20344
536.0	0.22873
536.2	0.25511
536.4	0.28059
536.6	0.30544
536.8	0.3242
537.0	0.34534
537.2	0.36425
537.4	0.38177
537.6	0.3971
537.8	0.40804
538.0	0.41774
538.2	0.42978
538.4	0.43562
538.6	0.43934
538.8	0.44382
539.0	0.44689
539.2	0.44998
539.4	0.45344
539.6	0.45576
539.8	0.45695
540.0	0.45787
540.2	0.45769
540.4	0.45934
540.6	0.46026
540.8	0.46248
541.0	0.45849
541.2	0.46142
541.4	0.46326
541.6	0.46869
541.8	0.47831
542.0	0.48924
542.2	0.50438
542.4	0.52288
542.6	0.54515
542.8	0.57203
543.0	0.60162
543.2	0.63395
543.4	0.66741
543.6	0.70185
543.8	0.73734
544.0	0.76295
544.2	0.78945
544.4	0.81686
544.6	0.84524
544.8	0.87459
545.0	0.90497
545.2	0.91857
545.4	0.92873
545.6	0.93531
545.8	0.93989
546.0	0.94186
546.2	0.94247
546.4	0.94145
546.6	0.94053
546.8	0.9416
547.0	0.94074
547.2	0.93992
547.4	0.94169
547.6	0.94211
547.8	0.94354
548.0	0.94474
548.2	0.94407
548.4	0.94322
548.6	0.94301
548.8	0.94452
549.0	0.94246
549.2	0.94259
549.4	0.94389
549.6	0.94371
549.8	0.94226
550.0	0.94259
550.2	0.94381
550.4	0.94348
550.6	0.94335
550.8	0.94234
551.0	0.94348
551.2	0.94194
551.4	0.94078
551.6	0.9415
551.8	0.94336
552.0	0.94467
552.2	0.94591
552.4	0.94627
552.6	0.94597
552.8	0.9468
553.0	0.9478
553.2	0.94821
553.4	0.94831
553.6	0.94913
553.8	0.94894
554.0	0.95233
554.2	0.95438
554.4	0.95451
554.6	0.95385
554.8	0.95304
555.0	0.95351
555.2	0.95453
555.4	0.95452
555.6	0.95671
555.8	0.95689
556.0	0.95578
556.2	0.95658
556.4	0.9554
556.6	0.95637
556.8	0.95854
557.0	0.96009
557.2	0.95994
557.4	0.95662
557.6	0.95699
557.8	0.95807
558.0	0.9581
558.2	0.95732
558.4	0.9557
558.6	0.95566
558.8	0.9547
559.0	0.95417
559.2	0.95456
559.4	0.95415
559.6	0.95187
559.8	0.95012
560.0	0.95088
560.2	0.95072
560.4	0.94974
560.6	0.94793
560.8	0.9463
561.0	0.94658
561.2	0.94621
561.4	0.94597
561.6	0.94687
561.8	0.94561
562.0	0.94368
562.2	0.94301
562.4	0.94666
562.6	0.94805
562.8	0.94785
563.0	0.94838
563.2	0.95087
563.4	0.95268
563.6	0.95359
563.8	0.95511
564.0	0.95732
564.2	0.95875
564.4	0.96282
564.6	0.96373
564.8	0.96402
565.0	0.96286
565.2	0.96325
565.4	0.96398
565.6	0.96531
565.8	0.96306
566.0	0.96241
566.2	0.96214
566.4	0.96133
566.6	0.96141
566.8	0.95997
567.0	0.95701
567.2	0.95793
567.4	0.95607
567.6	0.9554
567.8	0.95403
568.0	0.952
568.2	0.95165
568.4	0.95055
568.6	0.95063
568.8	0.95123
569.0	0.94999
569.2	0.94631
569.4	0.94639
569.6	0.94508
569.8	0.94179
570.0	0.93911
570.2	0.94017
570.4	0.94137
570.6	0.9421
570.8	0.94285
571.0	0.94311
571.2	0.94251
571.4	0.94326
571.6	0.94461
571.8	0.9488
572.0	0.95175
572.2	0.95187
572.4	0.95369
572.6	0.95496
572.8	0.95694
573.0	0.95797
573.2	0.95791
573.4	0.95853
573.6	0.96081
573.8	0.96238
574.0	0.96327
574.2	0.96428
574.4	0.96628
574.6	0.96265
574.8	0.9624
575.0	0.96397
575.2	0.96638
575.4	0.96825
575.6	0.96701
575.8	0.9651
576.0	0.96748
576.2	0.96835
576.4	0.9671
576.6	0.96583
